# Filename	C:\Users\labuser\Documents\Data\2018-09-25\2_fscan.txt
# Date	2018-9-25-19:43
# Source	C:\Users\labuser\Documents\Labview_prog\T2100\scan_freq.vi
# MW Power (dBm)	14.00
# Note	# Note Cavity Resonance Scan using n=34 + 1 f_MW. Hittite HMC-T2100 at 14 dB connected to splitter, mixer, then doubler, -20 dB, amp, cavity. AWG used to pulse MW field during lasers, for 300 ns. Variable attenuation at -15 dB.
# Frequency (Hz)	Voltage (V)
19590000000.000	-0.039
19591000000.000	-0.016
19592000000.000	-0.009
19593000000.000	-0.006
19594000000.000	-0.007
19595000000.000	-0.009
19596000000.000	-0.008
19597000000.000	-0.008
19598000000.000	-0.007
19599000000.000	-0.009
19600000000.000	-0.008
19601000000.000	-0.009
19602000000.000	-0.009
19603000000.000	-0.003
19604000000.000	-0.003
19605000000.000	-0.004
19606000000.000	-0.006
19607000000.000	-0.009
19608000000.000	-0.006
19609000000.000	-0.008
19610000000.000	-0.008
19611000000.000	-0.007
19612000000.000	-0.009
19613000000.000	-0.011
19614000000.000	-0.006
19615000000.000	-0.011
19616000000.000	-0.015
19617000000.000	-0.014
19618000000.000	-0.017
19619000000.000	-0.021
19620000000.000	-0.022
19621000000.000	-0.020
19622000000.000	-0.020
19623000000.000	-0.031
19624000000.000	-0.033
19625000000.000	-0.038
19626000000.000	-0.042
19627000000.000	-0.049
19628000000.000	-0.060
19629000000.000	-0.065
19630000000.000	-0.082
19631000000.000	-0.087
19632000000.000	-0.099
19633000000.000	-0.098
19634000000.000	-0.104
19635000000.000	-0.113
19636000000.000	-0.111
19637000000.000	-0.108
19638000000.000	-0.110
19639000000.000	-0.114
19640000000.000	-0.104
19641000000.000	-0.097
19642000000.000	-0.081
19643000000.000	-0.077
19644000000.000	-0.077
19645000000.000	-0.063
19646000000.000	-0.055
19647000000.000	-0.049
19648000000.000	-0.047
19649000000.000	-0.046
19650000000.000	-0.035
19651000000.000	-0.034
19652000000.000	-0.027
19653000000.000	-0.025
19654000000.000	-0.026
19655000000.000	-0.022
19656000000.000	-0.022
19657000000.000	-0.022
19658000000.000	-0.017
19659000000.000	-0.012
19660000000.000	-0.008
19661000000.000	-0.011
19662000000.000	-0.009
19663000000.000	-0.012
19664000000.000	-0.009
19665000000.000	-0.008
19666000000.000	-0.008
19667000000.000	-0.006
19668000000.000	-0.009
19669000000.000	-0.004
19670000000.000	-0.002
19671000000.000	-0.002
19672000000.000	-0.003
19673000000.000	-0.006
19674000000.000	-0.008
19675000000.000	-0.005
19676000000.000	-0.009
19677000000.000	-0.008
19678000000.000	-0.009
19679000000.000	-0.005
19680000000.000	-0.003
19681000000.000	-0.005
19682000000.000	-0.002
19683000000.000	-0.001
19684000000.000	-0.003
19685000000.000	-0.000
19686000000.000	-0.000
19687000000.000	0.000
19688000000.000	0.003
19689000000.000	0.005
19690000000.000	0.006
19691000000.000	-0.000
19692000000.000	-0.002
19693000000.000	-0.004
19694000000.000	-0.006
19695000000.000	-0.004
19696000000.000	-0.004
19697000000.000	-0.001
19698000000.000	-0.002
19699000000.000	-0.004
19700000000.000	-0.003
19590100000.000	-0.008
19591100000.000	-0.005
19592100000.000	-0.006
19593100000.000	-0.004
19594100000.000	-0.002
19595100000.000	-0.007
19596100000.000	-0.006
19597100000.000	-0.011
19598100000.000	-0.008
19599100000.000	-0.007
19600100000.000	-0.008
19601100000.000	-0.010
19602100000.000	-0.011
19603100000.000	-0.010
19604100000.000	-0.009
19605100000.000	-0.012
19606100000.000	-0.010
19607100000.000	-0.006
19608100000.000	-0.003
19609100000.000	-0.003
19610100000.000	-0.005
19611100000.000	-0.005
19612100000.000	-0.008
19613100000.000	-0.007
19614100000.000	-0.006
19615100000.000	-0.009
19616100000.000	-0.013
19617100000.000	-0.013
19618100000.000	-0.016
19619100000.000	-0.017
19620100000.000	-0.018
19621100000.000	-0.024
19622100000.000	-0.026
19623100000.000	-0.034
19624100000.000	-0.036
19625100000.000	-0.043
19626100000.000	-0.055
19627100000.000	-0.059
19628100000.000	-0.072
19629100000.000	-0.070
19630100000.000	-0.076
19631100000.000	-0.078
19632100000.000	-0.085
19633100000.000	-0.087
19634100000.000	-0.092
19635100000.000	-0.093
19636100000.000	-0.106
19637100000.000	-0.110
19638100000.000	-0.119
19639100000.000	-0.106
19640100000.000	-0.104
19641100000.000	-0.094
19642100000.000	-0.088
19643100000.000	-0.079
19644100000.000	-0.073
19645100000.000	-0.065
19646100000.000	-0.062
19647100000.000	-0.050
19648100000.000	-0.048
19649100000.000	-0.045
19650100000.000	-0.045
19651100000.000	-0.036
19652100000.000	-0.030
19653100000.000	-0.029
19654100000.000	-0.027
19655100000.000	-0.016
19656100000.000	-0.015
19657100000.000	-0.015
19658100000.000	-0.014
19659100000.000	-0.013
19660100000.000	-0.010
19661100000.000	-0.009
19662100000.000	-0.009
19663100000.000	-0.011
19664100000.000	-0.012
19665100000.000	-0.010
19666100000.000	-0.007
19667100000.000	-0.007
19668100000.000	-0.005
19669100000.000	-0.008
19670100000.000	-0.006
19671100000.000	-0.005
19672100000.000	-0.009
19673100000.000	-0.007
19674100000.000	-0.002
19675100000.000	-0.002
19676100000.000	-0.006
19677100000.000	-0.003
19678100000.000	-0.004
19679100000.000	-0.001
19680100000.000	-0.001
19681100000.000	-0.000
19682100000.000	0.000
19683100000.000	0.001
19684100000.000	0.001
19685100000.000	-0.001
19686100000.000	0.001
19687100000.000	-0.000
19688100000.000	-0.004
19689100000.000	-0.004
19690100000.000	-0.002
19691100000.000	0.000
19692100000.000	0.001
19693100000.000	0.004
19694100000.000	0.005
19695100000.000	0.003
19696100000.000	0.003
19697100000.000	0.003
19698100000.000	0.005
19699100000.000	0.004
19590200000.000	-0.001
19591200000.000	0.001
19592200000.000	-0.003
19593200000.000	-0.001
19594200000.000	-0.006
19595200000.000	-0.005
19596200000.000	-0.004
19597200000.000	-0.003
19598200000.000	-0.002
19599200000.000	-0.002
19600200000.000	-0.001
19601200000.000	-0.003
19602200000.000	-0.007
19603200000.000	-0.004
19604200000.000	-0.001
19605200000.000	-0.004
19606200000.000	-0.004
19607200000.000	-0.003
19608200000.000	-0.009
19609200000.000	-0.011
19610200000.000	-0.007
19611200000.000	-0.009
19612200000.000	-0.013
19613200000.000	-0.010
19614200000.000	-0.015
19615200000.000	-0.012
19616200000.000	-0.012
19617200000.000	-0.011
19618200000.000	-0.012
19619200000.000	-0.017
19620200000.000	-0.017
19621200000.000	-0.019
19622200000.000	-0.026
19623200000.000	-0.032
19624200000.000	-0.035
19625200000.000	-0.044
19626200000.000	-0.056
19627200000.000	-0.056
19628200000.000	-0.060
19629200000.000	-0.066
19630200000.000	-0.075
19631200000.000	-0.078
19632200000.000	-0.086
19633200000.000	-0.103
19634200000.000	-0.103
19635200000.000	-0.111
19636200000.000	-0.115
19637200000.000	-0.110
19638200000.000	-0.104
19639200000.000	-0.101
19640200000.000	-0.098
19641200000.000	-0.100
19642200000.000	-0.083
19643200000.000	-0.085
19644200000.000	-0.081
19645200000.000	-0.073
19646200000.000	-0.062
19647200000.000	-0.053
19648200000.000	-0.049
19649200000.000	-0.043
19650200000.000	-0.038
19651200000.000	-0.036
19652200000.000	-0.029
19653200000.000	-0.024
19654200000.000	-0.026
19655200000.000	-0.023
19656200000.000	-0.020
19657200000.000	-0.019
19658200000.000	-0.016
19659200000.000	-0.017
19660200000.000	-0.010
19661200000.000	-0.012
19662200000.000	-0.012
19663200000.000	-0.007
19664200000.000	-0.007
19665200000.000	-0.010
19666200000.000	-0.010
19667200000.000	-0.008
19668200000.000	-0.007
19669200000.000	-0.001
19670200000.000	-0.004
19671200000.000	-0.004
19672200000.000	0.001
19673200000.000	-0.003
19674200000.000	-0.004
19675200000.000	-0.002
19676200000.000	-0.004
19677200000.000	-0.001
19678200000.000	0.001
19679200000.000	-0.001
19680200000.000	-0.003
19681200000.000	0.001
19682200000.000	0.004
19683200000.000	0.005
19684200000.000	0.004
19685200000.000	0.002
19686200000.000	-0.003
19687200000.000	-0.002
19688200000.000	-0.002
19689200000.000	0.001
19690200000.000	-0.000
19691200000.000	0.000
19692200000.000	-0.001
19693200000.000	-0.001
19694200000.000	-0.002
19695200000.000	-0.001
19696200000.000	-0.006
19697200000.000	-0.004
19698200000.000	-0.004
19699200000.000	-0.002
19590300000.000	-0.004
19591300000.000	-0.008
19592300000.000	-0.005
19593300000.000	-0.000
19594300000.000	-0.006
19595300000.000	-0.005
19596300000.000	-0.006
19597300000.000	-0.004
19598300000.000	-0.008
19599300000.000	-0.006
19600300000.000	-0.005
19601300000.000	-0.006
19602300000.000	-0.004
19603300000.000	-0.009
19604300000.000	-0.011
19605300000.000	-0.007
19606300000.000	-0.006
19607300000.000	-0.005
19608300000.000	-0.001
19609300000.000	-0.004
19610300000.000	-0.007
19611300000.000	-0.006
19612300000.000	-0.013
19613300000.000	-0.016
19614300000.000	-0.011
19615300000.000	-0.008
19616300000.000	-0.005
19617300000.000	-0.009
19618300000.000	-0.013
19619300000.000	-0.014
19620300000.000	-0.012
19621300000.000	-0.018
19622300000.000	-0.023
19623300000.000	-0.029
19624300000.000	-0.031
19625300000.000	-0.045
19626300000.000	-0.043
19627300000.000	-0.054
19628300000.000	-0.059
19629300000.000	-0.069
19630300000.000	-0.085
19631300000.000	-0.086
19632300000.000	-0.090
19633300000.000	-0.091
19634300000.000	-0.114
19635300000.000	-0.118
19636300000.000	-0.111
19637300000.000	-0.115
19638300000.000	-0.115
19639300000.000	-0.113
19640300000.000	-0.103
19641300000.000	-0.101
19642300000.000	-0.079
19643300000.000	-0.090
19644300000.000	-0.075
19645300000.000	-0.061
19646300000.000	-0.050
19647300000.000	-0.045
19648300000.000	-0.047
19649300000.000	-0.037
19650300000.000	-0.042
19651300000.000	-0.039
19652300000.000	-0.034
19653300000.000	-0.031
19654300000.000	-0.022
19655300000.000	-0.021
19656300000.000	-0.020
19657300000.000	-0.017
19658300000.000	-0.015
19659300000.000	-0.013
19660300000.000	-0.011
19661300000.000	-0.013
19662300000.000	-0.008
19663300000.000	-0.009
19664300000.000	-0.005
19665300000.000	-0.006
19666300000.000	-0.007
19667300000.000	-0.008
19668300000.000	-0.010
19669300000.000	-0.005
19670300000.000	-0.002
19671300000.000	-0.009
19672300000.000	-0.005
19673300000.000	-0.000
19674300000.000	-0.001
19675300000.000	0.001
19676300000.000	-0.001
19677300000.000	-0.003
19678300000.000	-0.001
19679300000.000	0.000
19680300000.000	0.002
19681300000.000	0.002
19682300000.000	0.001
19683300000.000	0.004
19684300000.000	-0.000
19685300000.000	0.000
19686300000.000	0.003
19687300000.000	0.002
19688300000.000	0.005
19689300000.000	0.004
19690300000.000	0.004
19691300000.000	0.003
19692300000.000	0.004
19693300000.000	0.004
19694300000.000	0.003
19695300000.000	0.002
19696300000.000	0.001
19697300000.000	0.004
19698300000.000	0.002
19699300000.000	0.002
19590400000.000	-0.001
19591400000.000	-0.001
19592400000.000	0.004
19593400000.000	0.000
19594400000.000	-0.005
19595400000.000	-0.006
19596400000.000	-0.005
19597400000.000	-0.004
19598400000.000	0.002
19599400000.000	-0.002
19600400000.000	-0.008
19601400000.000	-0.006
19602400000.000	-0.008
19603400000.000	-0.002
19604400000.000	-0.003
19605400000.000	-0.006
19606400000.000	-0.005
19607400000.000	-0.006
19608400000.000	-0.007
19609400000.000	-0.009
19610400000.000	-0.010
19611400000.000	-0.003
19612400000.000	-0.004
19613400000.000	-0.009
19614400000.000	-0.011
19615400000.000	-0.009
19616400000.000	-0.011
19617400000.000	-0.014
19618400000.000	-0.016
19619400000.000	-0.016
19620400000.000	-0.019
19621400000.000	-0.016
19622400000.000	-0.022
19623400000.000	-0.024
19624400000.000	-0.038
19625400000.000	-0.046
19626400000.000	-0.042
19627400000.000	-0.054
19628400000.000	-0.063
19629400000.000	-0.083
19630400000.000	-0.084
19631400000.000	-0.084
19632400000.000	-0.088
19633400000.000	-0.097
19634400000.000	-0.104
19635400000.000	-0.107
19636400000.000	-0.113
19637400000.000	-0.108
19638400000.000	-0.112
19639400000.000	-0.105
19640400000.000	-0.099
19641400000.000	-0.091
19642400000.000	-0.085
19643400000.000	-0.072
19644400000.000	-0.062
19645400000.000	-0.056
19646400000.000	-0.051
19647400000.000	-0.042
19648400000.000	-0.038
19649400000.000	-0.038
19650400000.000	-0.033
19651400000.000	-0.029
19652400000.000	-0.028
19653400000.000	-0.025
19654400000.000	-0.024
19655400000.000	-0.021
19656400000.000	-0.020
19657400000.000	-0.021
19658400000.000	-0.019
19659400000.000	-0.013
19660400000.000	-0.013
19661400000.000	-0.010
19662400000.000	-0.010
19663400000.000	-0.007
19664400000.000	-0.010
19665400000.000	-0.010
19666400000.000	-0.012
19667400000.000	-0.005
19668400000.000	-0.003
19669400000.000	-0.006
19670400000.000	-0.006
19671400000.000	-0.007
19672400000.000	-0.008
19673400000.000	-0.004
19674400000.000	-0.005
19675400000.000	-0.004
19676400000.000	-0.001
19677400000.000	-0.000
19678400000.000	0.002
19679400000.000	0.001
19680400000.000	0.001
19681400000.000	0.003
19682400000.000	0.001
19683400000.000	0.000
19684400000.000	-0.001
19685400000.000	-0.001
19686400000.000	-0.002
19687400000.000	-0.000
19688400000.000	0.002
19689400000.000	0.004
19690400000.000	0.004
19691400000.000	0.005
19692400000.000	0.003
19693400000.000	0.004
19694400000.000	0.002
19695400000.000	0.002
19696400000.000	-0.002
19697400000.000	-0.002
19698400000.000	-0.003
19699400000.000	-0.003
19590500000.000	-0.004
19591500000.000	-0.002
19592500000.000	-0.002
19593500000.000	-0.004
19594500000.000	-0.004
19595500000.000	-0.003
19596500000.000	-0.004
19597500000.000	-0.008
19598500000.000	-0.009
19599500000.000	-0.010
19600500000.000	-0.010
19601500000.000	-0.008
19602500000.000	-0.005
19603500000.000	-0.002
19604500000.000	0.000
19605500000.000	-0.004
19606500000.000	-0.004
19607500000.000	-0.002
19608500000.000	-0.005
19609500000.000	-0.006
19610500000.000	-0.005
19611500000.000	-0.003
19612500000.000	-0.002
19613500000.000	-0.000
19614500000.000	-0.003
19615500000.000	-0.006
19616500000.000	-0.006
19617500000.000	-0.014
19618500000.000	-0.013
19619500000.000	-0.014
19620500000.000	-0.015
19621500000.000	-0.017
19622500000.000	-0.024
19623500000.000	-0.026
19624500000.000	-0.033
19625500000.000	-0.041
19626500000.000	-0.044
19627500000.000	-0.058
19628500000.000	-0.072
19629500000.000	-0.080
19630500000.000	-0.085
19631500000.000	-0.084
19632500000.000	-0.092
19633500000.000	-0.096
19634500000.000	-0.113
19635500000.000	-0.121
19636500000.000	-0.121
19637500000.000	-0.113
19638500000.000	-0.105
19639500000.000	-0.107
19640500000.000	-0.099
19641500000.000	-0.092
19642500000.000	-0.077
19643500000.000	-0.069
19644500000.000	-0.059
19645500000.000	-0.057
19646500000.000	-0.047
19647500000.000	-0.047
19648500000.000	-0.042
19649500000.000	-0.040
19650500000.000	-0.039
19651500000.000	-0.030
19652500000.000	-0.027
19653500000.000	-0.021
19654500000.000	-0.018
19655500000.000	-0.023
19656500000.000	-0.026
19657500000.000	-0.024
19658500000.000	-0.020
19659500000.000	-0.018
19660500000.000	-0.014
19661500000.000	-0.015
19662500000.000	-0.009
19663500000.000	-0.011
19664500000.000	-0.003
19665500000.000	-0.005
19666500000.000	-0.010
19667500000.000	-0.007
19668500000.000	-0.006
19669500000.000	-0.007
19670500000.000	-0.003
19671500000.000	-0.003
19672500000.000	-0.006
19673500000.000	-0.007
19674500000.000	-0.005
19675500000.000	-0.003
19676500000.000	-0.007
19677500000.000	-0.003
19678500000.000	-0.003
19679500000.000	-0.002
19680500000.000	0.000
19681500000.000	-0.002
19682500000.000	0.002
19683500000.000	0.002
19684500000.000	-0.000
19685500000.000	0.002
19686500000.000	0.003
19687500000.000	0.000
19688500000.000	0.000
19689500000.000	-0.000
19690500000.000	-0.000
19691500000.000	0.003
19692500000.000	0.002
19693500000.000	0.001
19694500000.000	0.000
19695500000.000	0.002
19696500000.000	0.003
19697500000.000	0.004
19698500000.000	0.005
19699500000.000	0.004
19590600000.000	0.001
19591600000.000	0.002
19592600000.000	0.005
19593600000.000	-0.001
19594600000.000	-0.003
19595600000.000	-0.006
19596600000.000	-0.008
19597600000.000	-0.008
19598600000.000	-0.008
19599600000.000	-0.003
19600600000.000	-0.006
19601600000.000	-0.007
19602600000.000	-0.006
19603600000.000	-0.007
19604600000.000	-0.005
19605600000.000	0.000
19606600000.000	-0.005
19607600000.000	-0.009
19608600000.000	-0.009
19609600000.000	-0.006
19610600000.000	-0.007
19611600000.000	-0.003
19612600000.000	-0.004
19613600000.000	-0.005
19614600000.000	-0.003
19615600000.000	-0.009
19616600000.000	-0.006
19617600000.000	-0.009
19618600000.000	-0.015
19619600000.000	-0.014
19620600000.000	-0.014
19621600000.000	-0.019
19622600000.000	-0.027
19623600000.000	-0.033
19624600000.000	-0.038
19625600000.000	-0.047
19626600000.000	-0.055
19627600000.000	-0.054
19628600000.000	-0.061
19629600000.000	-0.073
19630600000.000	-0.080
19631600000.000	-0.090
19632600000.000	-0.099
19633600000.000	-0.102
19634600000.000	-0.107
19635600000.000	-0.106
19636600000.000	-0.115
19637600000.000	-0.113
19638600000.000	-0.110
19639600000.000	-0.091
19640600000.000	-0.100
19641600000.000	-0.098
19642600000.000	-0.085
19643600000.000	-0.078
19644600000.000	-0.073
19645600000.000	-0.058
19646600000.000	-0.054
19647600000.000	-0.042
19648600000.000	-0.042
19649600000.000	-0.033
19650600000.000	-0.035
19651600000.000	-0.036
19652600000.000	-0.031
19653600000.000	-0.027
19654600000.000	-0.022
19655600000.000	-0.025
19656600000.000	-0.019
19657600000.000	-0.018
19658600000.000	-0.019
19659600000.000	-0.020
19660600000.000	-0.017
19661600000.000	-0.012
19662600000.000	-0.013
19663600000.000	-0.011
19664600000.000	-0.009
19665600000.000	-0.011
19666600000.000	-0.004
19667600000.000	-0.007
19668600000.000	-0.005
19669600000.000	-0.009
19670600000.000	-0.003
19671600000.000	-0.004
19672600000.000	-0.005
19673600000.000	-0.005
19674600000.000	-0.005
19675600000.000	-0.004
19676600000.000	-0.004
19677600000.000	-0.005
19678600000.000	-0.004
19679600000.000	0.003
19680600000.000	0.000
19681600000.000	-0.004
19682600000.000	-0.003
19683600000.000	-0.000
19684600000.000	-0.002
19685600000.000	-0.001
19686600000.000	0.007
19687600000.000	0.003
19688600000.000	0.003
19689600000.000	0.004
19690600000.000	0.004
19691600000.000	-0.000
19692600000.000	-0.002
19693600000.000	-0.003
19694600000.000	-0.003
19695600000.000	-0.002
19696600000.000	-0.002
19697600000.000	-0.001
19698600000.000	-0.002
19699600000.000	-0.004
19590700000.000	-0.004
19591700000.000	-0.004
19592700000.000	-0.002
19593700000.000	-0.003
19594700000.000	-0.007
19595700000.000	-0.010
19596700000.000	-0.010
19597700000.000	-0.009
19598700000.000	-0.009
19599700000.000	-0.009
19600700000.000	-0.010
19601700000.000	-0.006
19602700000.000	-0.005
19603700000.000	-0.005
19604700000.000	-0.006
19605700000.000	-0.004
19606700000.000	-0.006
19607700000.000	-0.010
19608700000.000	-0.008
19609700000.000	-0.010
19610700000.000	-0.007
19611700000.000	-0.005
19612700000.000	-0.008
19613700000.000	-0.008
19614700000.000	-0.009
19615700000.000	-0.002
19616700000.000	-0.005
19617700000.000	-0.007
19618700000.000	-0.010
19619700000.000	-0.014
19620700000.000	-0.016
19621700000.000	-0.023
19622700000.000	-0.023
19623700000.000	-0.034
19624700000.000	-0.034
19625700000.000	-0.046
19626700000.000	-0.045
19627700000.000	-0.050
19628700000.000	-0.058
19629700000.000	-0.075
19630700000.000	-0.070
19631700000.000	-0.088
19632700000.000	-0.095
19633700000.000	-0.095
19634700000.000	-0.104
19635700000.000	-0.105
19636700000.000	-0.111
19637700000.000	-0.103
19638700000.000	-0.110
19639700000.000	-0.099
19640700000.000	-0.104
19641700000.000	-0.091
19642700000.000	-0.080
19643700000.000	-0.066
19644700000.000	-0.067
19645700000.000	-0.059
19646700000.000	-0.055
19647700000.000	-0.051
19648700000.000	-0.046
19649700000.000	-0.044
19650700000.000	-0.037
19651700000.000	-0.038
19652700000.000	-0.035
19653700000.000	-0.019
19654700000.000	-0.021
19655700000.000	-0.020
19656700000.000	-0.021
19657700000.000	-0.018
19658700000.000	-0.015
19659700000.000	-0.010
19660700000.000	-0.009
19661700000.000	-0.007
19662700000.000	-0.008
19663700000.000	-0.008
19664700000.000	-0.011
19665700000.000	-0.006
19666700000.000	-0.004
19667700000.000	-0.004
19668700000.000	-0.004
19669700000.000	-0.004
19670700000.000	-0.006
19671700000.000	-0.004
19672700000.000	-0.005
19673700000.000	-0.004
19674700000.000	-0.003
19675700000.000	-0.007
19676700000.000	0.002
19677700000.000	-0.002
19678700000.000	-0.004
19679700000.000	-0.003
19680700000.000	-0.002
19681700000.000	-0.001
19682700000.000	-0.002
19683700000.000	-0.000
19684700000.000	-0.002
19685700000.000	-0.000
19686700000.000	0.006
19687700000.000	0.007
19688700000.000	0.004
19689700000.000	0.002
19690700000.000	0.002
19691700000.000	0.001
19692700000.000	0.000
19693700000.000	-0.002
19694700000.000	-0.002
19695700000.000	-0.001
19696700000.000	-0.002
19697700000.000	0.002
19698700000.000	0.003
19699700000.000	0.002
19590800000.000	-0.007
19591800000.000	-0.006
19592800000.000	-0.010
19593800000.000	-0.005
19594800000.000	-0.008
19595800000.000	-0.010
19596800000.000	-0.005
19597800000.000	-0.005
19598800000.000	-0.007
19599800000.000	-0.007
19600800000.000	-0.008
19601800000.000	-0.011
19602800000.000	-0.007
19603800000.000	-0.010
19604800000.000	-0.007
19605800000.000	-0.005
19606800000.000	-0.006
19607800000.000	-0.009
19608800000.000	-0.008
19609800000.000	-0.008
19610800000.000	-0.008
19611800000.000	-0.012
19612800000.000	-0.013
19613800000.000	-0.012
19614800000.000	-0.009
19615800000.000	-0.010
19616800000.000	-0.014
19617800000.000	-0.012
19618800000.000	-0.016
19619800000.000	-0.018
19620800000.000	-0.022
19621800000.000	-0.020
19622800000.000	-0.028
19623800000.000	-0.036
19624800000.000	-0.048
19625800000.000	-0.050
19626800000.000	-0.056
19627800000.000	-0.052
19628800000.000	-0.062
19629800000.000	-0.071
19630800000.000	-0.084
19631800000.000	-0.087
19632800000.000	-0.087
19633800000.000	-0.089
19634800000.000	-0.101
19635800000.000	-0.110
19636800000.000	-0.119
19637800000.000	-0.102
19638800000.000	-0.105
19639800000.000	-0.104
19640800000.000	-0.093
19641800000.000	-0.093
19642800000.000	-0.085
19643800000.000	-0.076
19644800000.000	-0.066
19645800000.000	-0.058
19646800000.000	-0.051
19647800000.000	-0.053
19648800000.000	-0.047
19649800000.000	-0.044
19650800000.000	-0.038
19651800000.000	-0.037
19652800000.000	-0.024
19653800000.000	-0.028
19654800000.000	-0.024
19655800000.000	-0.021
19656800000.000	-0.015
19657800000.000	-0.017
19658800000.000	-0.015
19659800000.000	-0.011
19660800000.000	-0.011
19661800000.000	-0.009
19662800000.000	-0.006
19663800000.000	-0.007
19664800000.000	-0.008
19665800000.000	-0.013
19666800000.000	-0.012
19667800000.000	-0.008
19668800000.000	-0.007
19669800000.000	-0.006
19670800000.000	-0.006
19671800000.000	-0.003
19672800000.000	-0.002
19673800000.000	-0.002
19674800000.000	-0.007
19675800000.000	-0.005
19676800000.000	-0.000
19677800000.000	-0.001
19678800000.000	-0.001
19679800000.000	-0.001
19680800000.000	-0.001
19681800000.000	-0.003
19682800000.000	-0.003
19683800000.000	-0.003
19684800000.000	-0.001
19685800000.000	-0.001
19686800000.000	0.001
19687800000.000	0.002
19688800000.000	-0.003
19689800000.000	0.001
19690800000.000	0.003
19691800000.000	0.001
19692800000.000	0.002
19693800000.000	-0.000
19694800000.000	-0.000
19695800000.000	0.001
19696800000.000	0.005
19697800000.000	0.001
19698800000.000	0.004
19699800000.000	0.005
19590900000.000	-0.001
19591900000.000	-0.001
19592900000.000	-0.002
19593900000.000	-0.002
19594900000.000	0.000
19595900000.000	-0.007
19596900000.000	-0.001
19597900000.000	-0.003
19598900000.000	-0.003
19599900000.000	-0.004
19600900000.000	-0.003
19601900000.000	-0.004
19602900000.000	-0.004
19603900000.000	-0.003
19604900000.000	-0.005
19605900000.000	-0.004
19606900000.000	-0.002
19607900000.000	-0.005
19608900000.000	-0.007
19609900000.000	-0.011
19610900000.000	-0.008
19611900000.000	-0.009
19612900000.000	-0.009
19613900000.000	-0.008
19614900000.000	-0.009
19615900000.000	-0.009
19616900000.000	-0.014
19617900000.000	-0.014
19618900000.000	-0.018
19619900000.000	-0.020
19620900000.000	-0.023
19621900000.000	-0.023
19622900000.000	-0.029
19623900000.000	-0.034
19624900000.000	-0.045
19625900000.000	-0.053
19626900000.000	-0.052
19627900000.000	-0.058
19628900000.000	-0.066
19629900000.000	-0.069
19630900000.000	-0.077
19631900000.000	-0.091
19632900000.000	-0.090
19633900000.000	-0.096
19634900000.000	-0.104
19635900000.000	-0.106
19636900000.000	-0.107
19637900000.000	-0.104
19638900000.000	-0.101
19639900000.000	-0.104
19640900000.000	-0.097
19641900000.000	-0.095
19642900000.000	-0.086
19643900000.000	-0.080
19644900000.000	-0.071
19645900000.000	-0.062
19646900000.000	-0.052
19647900000.000	-0.045
19648900000.000	-0.041
19649900000.000	-0.037
19650900000.000	-0.034
19651900000.000	-0.036
19652900000.000	-0.026
19653900000.000	-0.024
19654900000.000	-0.022
19655900000.000	-0.022
19656900000.000	-0.020
19657900000.000	-0.018
19658900000.000	-0.014
19659900000.000	-0.013
19660900000.000	-0.011
19661900000.000	-0.014
19662900000.000	-0.015
19663900000.000	-0.009
19664900000.000	-0.008
19665900000.000	-0.006
19666900000.000	-0.010
19667900000.000	-0.008
19668900000.000	-0.006
19669900000.000	-0.003
19670900000.000	-0.003
19671900000.000	-0.005
19672900000.000	-0.005
19673900000.000	-0.004
19674900000.000	-0.004
19675900000.000	-0.004
19676900000.000	-0.003
19677900000.000	-0.000
19678900000.000	0.000
19679900000.000	0.001
19680900000.000	0.000
19681900000.000	0.003
19682900000.000	0.002
19683900000.000	0.001
19684900000.000	0.001
19685900000.000	-0.000
19686900000.000	-0.001
19687900000.000	0.002
19688900000.000	0.000
19689900000.000	0.004
19690900000.000	-0.001
19691900000.000	-0.000
19692900000.000	0.002
19693900000.000	-0.000
19694900000.000	-0.001
19695900000.000	0.001
19696900000.000	0.002
19697900000.000	-0.001
19698900000.000	0.002
19699900000.000	0.000
